File: Materials/Tabulated/Stewart2012_V2O3_Ellipsometry_eps1.csv
#First row: Temperature [K]; First column: Frequency [cm-1]

0,120,140,150,160,180,200,230,260,280
60.6529,8.61398,10.00235,11.57661,9.23274,-96.43345,-131.897,-107.487,-96.70848,-50.4024
71.622,8.614,10.00134,11.57367,9.23285,-95.73041,-130.883,-106.923,-96.16915,-50.21734
82.6718,8.61403,10.00019,11.57034,9.23297,-94.9697,-129.7948,-106.312,-95.5862,-50.01645
93.7216,8.61406,9.9989,11.56663,9.23311,-94.1535,-128.635,-105.657,-94.96108,-49.8001
104.691,8.61409,9.99747,11.56253,9.23326,-93.2841,-127.408,-104.9596,-94.2953,-49.56869
115.741,8.61412,9.9959,11.55804,9.23342,-92.3639,-126.117,-104.221,-93.59047,-49.32264
126.71,8.61416,9.99418,11.55318,9.23359,-91.39539,-124.768,-103.442,-92.84825,-49.06239
137.76,8.6142,9.99233,11.54794,9.23378,-90.38114,-123.364,-102.6257,-92.07035,-48.7884
148.809,8.61425,9.99033,11.54232,9.23398,-89.32379,-121.91,-101.773,-91.25855,-48.50115
159.778,8.6143,9.9882,11.53634,9.23419,-88.22601,-120.41,-100.887,-90.41465,-48.20113
170.828,8.61435,9.98592,11.52998,9.23441,-87.09051,-118.869,-99.96791,-89.5405,-47.88885
181.878,8.61441,9.98351,11.52325,9.23464,-85.92004,-117.291,-99.01861,-88.63795,-47.56483
192.847,8.61447,9.98096,11.51617,9.23489,-84.71734,-115.679,-98.0408,-87.70888,-47.2296
203.897,8.61453,9.97827,11.50872,9.23515,-83.48514,-114.039,-97.03639,-86.75517,-46.88369
214.947,8.6146,9.97544,11.50091,9.23542,-82.22617,-112.375,-96.0073,-85.77872,-46.52764
225.916,8.61467,9.97248,11.49276,9.2357,-80.94312,-110.689,-94.95544,-84.78138,-46.16201
236.966,8.61474,9.96939,11.48425,9.23599,-79.63865,-108.986,-93.8827,-83.76503,-45.78734
248.015,8.61482,9.96616,11.4754,9.2363,-78.31538,-107.27,-92.79097,-82.73151,-45.40419
258.985,8.6149,9.96279,11.46621,9.23662,-76.97586,-105.544,-91.6821,-81.68263,-45.0131
270.034,8.61498,9.9593,11.45668,9.23695,-75.62258,-103.811,-90.55791,-80.62018,-44.61463
281.084,8.61507,9.95567,11.44682,9.23729,-74.25797,-102.075,-89.42018,-79.54591,-44.20932
292.053,8.61516,9.95192,11.43663,9.23765,-72.88437,-100.338,-88.27068,-78.46152,-43.79771
303.103,8.61526,9.94803,11.42612,9.23801,-71.50406,-98.60263,-87.11109,-77.36867,-43.38033
314.072,8.61535,9.94401,11.41529,9.23839,-70.11919,-96.87229,-85.94308,-76.26898,-42.95772
325.122,8.61546,9.93987,11.40415,9.23878,-68.73188,-95.14906,-84.76825,-75.16402,-42.53039
336.172,8.61556,9.9356,11.3927,9.23918,-67.34412,-93.43521,-83.58816,-74.05529,-42.09885
347.141,8.61567,9.93121,11.38094,9.23959,-65.95781,-91.73278,-82.4043,-72.94425,-41.66361
358.191,8.61578,9.92669,11.36889,9.24002,-64.57476,-90.04372,-81.21811,-71.83228,-41.22515
369.241,8.6159,9.92205,11.35655,9.24045,-63.19669,-88.36975,-80.03098,-70.72073,-40.78394
380.21,8.61602,9.91729,11.34391,9.2409,-61.8252,-86.71248,-78.84422,-69.61087,-40.34046
391.26,8.61614,9.9124,11.331,9.24135,-60.46183,-85.07335,-77.6591,-68.50393,-39.89514
402.309,8.61627,9.9074,11.31781,9.24182,-59.10799,-83.45367,-76.47682,-67.40103,-39.44844
413.279,8.6164,9.90228,11.30434,9.2423,-57.76501,-81.8546,-75.29851,-66.3033,-39.00077
424.328,8.61653,9.89704,11.29061,9.24279,-56.43412,-80.27718,-74.12525,-65.21175,-38.55254
435.378,8.61667,9.89169,11.27663,9.24329,-55.11648,-78.72232,-72.95807,-64.12735,-38.10415
446.347,8.61681,9.88622,11.26238,9.24381,-53.81314,-77.19082,-71.79793,-63.05103,-37.65597
457.397,8.61695,9.88065,11.24789,9.24433,-52.52506,-75.68338,-70.64571,-61.98362,-37.20837
468.366,8.6171,9.87496,11.23316,9.24486,-51.25313,-74.34772,-69.50228,-61.03124,-36.7617
479.416,8.61725,9.86916,11.21819,9.24541,-49.99816,-73.03236,-68.48132,-60.08727,-36.31629
490.466,8.6174,9.86325,11.20299,9.24596,-48.88375,-71.73766,-67.46869,-59.15221,-35.91677
501.435,8.61756,9.85723,11.18757,9.24653,-47.78421,-70.53397,-66.5203,-58.22653,-35.51875
512.485,8.61772,9.85111,11.17192,9.2471,-46.75975,-69.34918,-65.58023,-57.41194,-35.16638
523.535,8.61789,9.84489,11.15607,9.24769,-45.7491,-68.11526,-64.59421,-56.50515,-34.77177
534.504,8.61805,9.83856,11.14001,9.24828,-44.69454,-66.90259,-63.61819,-55.6089,-34.37924
545.553,8.61823,9.83214,11.12538,9.24876,-43.6562,-65.77692,-62.70594,-54.72354,-33.98899
556.603,8.6184,9.82627,11.11059,9.24931,-42.69065,-64.67037,-61.8033,-53.94595,-33.64414
567.008,8.61857,9.82099,11.09565,9.24987,-41.74005,-63.51945,-60.85823,-53.08198,-33.25865
576.444,8.61873,9.81497,11.0814,9.25044,-40.74996,-62.38999,-59.92458,-52.22973,-32.87592
586.284,8.61889,9.80888,11.06703,9.25095,-39.77684,-61.34279,-59.05339,-51.3894,-32.49608
596.286,8.61906,9.80271,11.05167,9.25153,-38.87358,-60.31445,-58.1927,-50.65263,-32.161
605.642,8.61922,9.79716,11.03617,9.25212,-37.98571,-59.24613,-57.29304,-49.83537,-31.78702
614.998,8.61939,9.79085,11.02142,9.25271,-37.06243,-58.19876,-56.4056,-49.03058,-31.41633
624.918,8.61957,9.78447,11.00654,9.25325,-36.15657,-57.22861,-55.57875,-48.23837,-31.04903
634.839,8.61975,9.77801,10.99068,9.25386,-35.31699,-56.27693,-54.76312,-47.54485,-30.72549
644.195,8.61992,9.77222,10.97469,9.25447,-34.49286,-55.28908,-53.91174,-46.7767,-30.36491
653.551,8.62009,9.76563,10.95949,9.25509,-32.98354,-53.06219,-51.97468,-45.23816,-29.6354
663.472,8.62028,9.75898,10.94418,9.25565,-29.87119,-49.58694,-48.90229,-42.47717,-28.30043
673.392,8.62047,9.75226,10.92788,9.25812,-27.01294,-46.39316,-46.02565,-39.91155,-27.02753
682.748,8.62066,9.74624,10.88943,9.26072,-24.3995,-43.46413,-43.34322,-37.53833,-25.81922
694.363,8.62089,9.71968,10.82424,9.2634,-22.0191,-40.78239,-40.85083,-35.35196,-24.67682
732.916,8.62168,9.69185,10.75788,9.26615,-19.85856,-38.33049,-38.54253,-33.34518,-23.60068
771.469,8.62252,9.66321,10.69058,9.26897,-17.90405,-36.09161,-36.41123,-31.50967,-22.59047
810.023,8.6234,9.63382,10.62256,9.27184,-16.14121,-34.04938,-34.44875,-29.83611,-21.64513
848.657,8.62432,9.60376,10.55403,9.27475,-14.55574,-32.18836,-32.64638,-28.31472,-20.76316
887.21,8.62528,9.57311,10.48518,9.27768,-13.13374,-30.49398,-30.99501,-26.93564,-19.94267
925.763,8.62629,9.54195,10.41622,9.28326,-11.8617,-28.95275,-29.48558,-25.68884,-19.18147
964.317,8.62734,9.51033,10.17628,9.28646,-10.72674,-27.55199,-28.10889,-24.56449,-18.47713
1002.95,8.62844,9.38088,10.10876,9.28931,-9.71679,-26.27998,-26.85594,-23.55311,-17.82714
1191.93,8.63441,9.34811,10.04191,9.2921,-8.82043,-25.12598,-25.71804,-22.64548,-17.22884
1230.48,8.63575,9.31531,9.97587,9.29478,-8.02707,-24.08,-24.68671,-21.83281,-16.67952
1269.11,8.63714,9.28253,9.91072,9.29735,-7.32691,-23.13283,-23.75385,-21.10684,-16.17652
1307.67,8.63857,9.24983,9.84654,9.29976,-6.71089,-22.27608,-22.91179,-20.45971,-15.71713
1346.22,8.64004,9.21728,9.78342,9.30198,-6.17068,-21.50194,-22.1532,-19.88406,-15.2987
1384.85,8.64156,9.18492,9.72143,9.30397,-5.69869,-20.80325,-21.47115,-19.37308,-14.91865
1423.41,8.64311,9.15281,9.66061,9.3057,-5.28795,-20.17347,-20.85916,-18.92038,-14.57445
1465.83,8.64488,9.11782,9.59512,9.30725,-4.8993,-19.55308,-20.2596,-18.48267,-14.23432
1508.26,8.64669,9.08324,9.53118,9.30837,-4.54216,-18.95435,-19.68487,-18.069,-13.90571
1554.55,8.64872,9.04606,9.46322,9.30901,-4.24615,-18.42864,-19.18413,-17.71363,-13.61759
1604.72,8.651,9.00648,9.39177,9.30893,-3.98534,-17.89708,-18.6823,-17.38554,-13.34689
1658.68,8.65353,8.96475,9.3174,9.30777,-3.76426,-17.44288,-18.25774,-17.06938,-13.08244
1712.72,8.65614,8.92403,9.24571,9.30532,-3.5856,-17.03066,-17.87632,-16.80884,-12.86326
1774.42,8.65922,8.87884,9.16709,9.30068,-3.45022,-16.643,-17.5213,-16.58069,-12.67275
1839.99,8.66261,8.83248,9.08742,9.29325,-3.35735,-16.32634,-17.23383,-16.38289,-12.51212
1909.44,8.66634,8.78535,9.00733,9.28208,-3.30306,-16.04143,-16.97638,-16.20321,-12.37499
1986.54,8.67063,8.73546,8.92339,9.26502,-3.28954,-15.80459,-16.76164,-16.0481,-12.26953
2067.6,8.67532,8.68596,8.84082,9.24097,-3.31299,-15.60167,-16.57424,-15.90407,-12.18889
2156.32,8.68067,8.6352,8.75668,9.20628,-3.37068,-15.42441,-16.40312,-15.76488,-12.13121
2252.71,8.68672,8.58416,8.67238,9.1573,-3.45379,-15.28031,-16.25273,-15.62183,-12.09142
2360.7,8.6938,8.53209,8.58634,9.08692,-3.56634,-15.14724,-16.0986,-15.45895,-12.06064
2476.44,8.70173,8.48217,8.50335,8.99218,-3.69337,-15.01333,-15.92658,-15.27021,-12.02941
2607.59,8.71116,8.4327,8.41994,8.86111,-3.82941,-14.86245,-15.71981,-15.03029,-11.98185
2750.35,8.72192,8.38703,8.34089,8.69452,-3.97088,-14.67106,-15.45367,-14.72413,-11.89997
2908.52,8.73446,8.34569,8.26615,8.49315,-4.10056,-14.41142,-15.10053,-14.33839,-11.76369
3089.83,8.7496,8.30923,8.19518,8.26455,-4.20737,-14.05979,-14.64098,-13.8424,-11.5434
3290.42,8.76727,8.28098,8.13255,8.0456,-4.27886,-13.57848,-14.03965,-13.22636,-11.21486
3521.82,8.78876,8.26194,8.07787,7.86241,-4.29734,-12.92775,-13.26191,-12.45192,-10.73653
3791.85,8.81519,8.25483,8.03367,7.7408,-4.24542,-12.09669,-12.30787,-11.52352,-10.09132
4100.44,8.84688,8.26217,8.00356,7.6856,-4.10003,-11.03339,-11.12977,-10.40882,-9.23977
4466.86,8.88582,8.28596,7.9888,7.67477,-3.83999,-9.75345,-9.75405,-9.10616,-8.16629
4856.51,8.92733,8.32173,7.98986,7.67708,-3.48742,-8.39842,-8.33225,-7.77981,-7.00962
5323.26,8.97357,8.36788,8.00245,7.66008,-3.00399,-6.85932,-6.74755,-6.30985,-5.67345
5886.4,9.01358,8.4085,8.01487,7.58278,-2.42455,-5.36201,-5.2282,-4.90387,-4.35767
8872.1,7.06637,6.66426,6.11232,5.26538,0.67938,0.06185,0.13269,0.30685,0.58262
12904.9,3.83667,3.82562,3.81946,3.82139,1.60811,1.2244,1.24423,1.31174,1.46967
16937.6,3.34984,3.35751,3.43909,3.57252,2.06184,1.7387,1.742,1.7811,1.91651
20970.4,3.74669,3.7088,3.74505,3.79706,2.63075,2.35365,2.354,2.38746,2.50824
25003.2,4.2296,4.17194,4.18838,4.22041,3.68908,3.54311,3.53164,3.54496,3.64053
29036,4.46058,4.40815,4.34255,4.36539,4.3358,4.39114,4.33815,4.33408,4.39882
33068.7,3.33608,3.3783,3.17917,3.14421,3.19849,3.10008,3.0399,3.16044,3.1531
37101.5,2.16459,2.16982,2.10152,2.11857,2.28844,2.31857,2.26803,2.32334,2.39238
41134.3,1.85487,1.91653,1.87509,1.85719,1.9149,1.863,1.85103,1.89186,1.87171
44360.5,1.67584,1.78281,1.67188,1.63953,1.73447,1.84387,1.85984,1.82376,1.83097